Metasequoia Document
Format Text Ver 1.0

Scene {
	pos -5.9584 -16.8882 1500.0005
	lookat 0.0000 0.0000 0.0000
	head 0.0000
	pich 0.0000
	bank 0.0000
	ortho 1
	zoom2 12.8000
	zoom_pers 5.0000
	amb 0.250 0.250 0.250
	dirlights 1 {
		light {
			dir 0.408 0.408 0.816
			color 1.000 1.000 1.000
		}
	}
}
Material 9 {
	"mat1" col(1.000 0.847 0.784 1.000) dif(0.800) amb(0.600) emi(0.000) spc(0.000) power(5.00)
	"mat2" col(1.000 0.671 0.863 1.000) dif(0.800) amb(0.600) emi(0.000) spc(0.000) power(5.00)
	"mat3" col(1.000 1.000 1.000 1.000) dif(0.800) amb(0.600) emi(0.000) spc(0.000) power(5.00)
	"mat4" col(0.318 0.318 0.318 1.000) dif(0.800) amb(0.600) emi(0.000) spc(0.000) power(5.00)
	"Material__49" col(0.082 0.047 1.000 1.000) dif(0.800) amb(0.600) emi(0.000) spc(0.000) power(5.00)
	"Material__50" col(0.969 0.765 0.612 1.000) dif(0.800) amb(0.600) emi(0.000) spc(0.000) power(5.00)
	"Material__51" col(1.000 0.141 0.569 1.000) dif(0.800) amb(0.600) emi(0.000) spc(0.000) power(5.00)
	"mat5" col(0.584 0.098 0.000 1.000) dif(0.800) amb(0.600) emi(0.000) spc(0.000) power(5.00)
	"mat6" col(0.043 0.043 0.043 1.000) dif(0.800) amb(0.600) emi(0.000) spc(0.000) power(5.00)
}
Object "Šç" {
	visible 15
	locking 0
	shading 1
	facet 59.5
	color 0.898 0.498 0.698
	color_type 0
	mirror 1
	mirror_axis 1
	vertex 991 {
		-21.4747 10.8264 15.3153
		-20.3010 11.0508 19.2048
		-18.1613 9.3835 19.3790
		-18.8093 8.7636 15.6664
		-23.8587 38.6924 19.3325
		-27.3232 36.1000 14.2499
		-27.6094 39.5779 13.0574
		-24.1300 41.6768 18.7805
		-5.8273 5.6217 23.9295
		-5.2636 6.7269 25.0982
		-2.2205 6.0793 25.5490
		-2.5355 4.7634 24.4894
		-5.4067 -0.1507 -1.2856
		-6.3897 -0.0512 0.6294
		-6.0341 -0.1407 3.5092
		-5.4720 -0.5604 6.2641
		-4.3017 -0.8513 8.3107
		-4.4635 2.4068 8.6927
		-5.7077 2.8580 6.6853
		-1.5217 -1.2801 9.4852
		-1.5804 1.9653 9.8251
		-9.2623 13.3733 26.2453
		-12.0945 12.6378 24.6930
		-13.5189 14.9057 24.3477
		-9.9215 15.3071 25.6527
		-6.6793 3.4630 0.6459
		-5.5429 3.4138 -1.6099
		-4.7181 7.9236 26.1101
		-7.5672 8.7418 25.4253
		-5.6655 9.7352 26.7567
		-4.0770 9.4960 27.1966
		-6.0733 4.4725 -2.5622
		-7.4643 4.5191 0.3476
		0.0411 -1.4991 9.9647
		-26.5201 31.9004 15.6770
		-26.0884 27.8369 15.4178
		-26.8827 28.0807 8.3310
		-27.6092 31.7746 7.7542
		0.0411 1.7652 10.3335
		-1.7997 2.6507 10.2960
		0.0411 2.4278 10.9144
		-6.5510 3.3399 3.6461
		-8.6652 4.6223 3.6286
		-6.8949 3.8828 7.1223
		-2.1074 3.1008 11.0661
		-4.9902 3.1415 9.1900
		-5.7013 3.6618 10.0548
		-4.4436 10.4005 27.5967
		-5.7298 10.4750 27.0415
		-7.8944 11.2055 26.5436
		-5.1092 11.8494 27.9125
		-5.4332 14.8172 27.8723
		-10.2427 33.5710 24.9900
		-12.3684 34.6065 24.6924
		-12.8554 38.7246 24.8952
		-7.7919 36.6429 26.8487
		-24.2791 30.5253 18.1199
		-24.6654 27.3668 17.5449
		-7.2593 5.6350 -4.1047
		-4.6100 4.9376 -7.0266
		-5.8348 6.0564 -9.7476
		-9.4363 7.0479 -6.2498
		-5.1277 23.9794 25.1989
		-3.4481 24.1105 25.7437
		-2.9201 21.4460 26.6556
		-5.9439 20.4199 25.5087
		-1.0152 21.7144 27.3668
		-1.6586 24.2654 27.0316
		0.0411 24.2749 27.5110
		0.0411 21.9729 27.7598
		-6.1849 33.1008 26.4079
		-9.0078 32.5439 25.1104
		-21.7158 32.9149 20.0606
		-23.4799 36.0725 19.4341
		-7.1827 3.7016 18.6073
		-11.6765 5.3900 17.1120
		-10.7799 5.7910 20.5584
		-6.5402 4.4151 21.5332
		-5.5293 16.9390 27.2993
		-2.9004 18.9431 29.2225
		-2.7746 16.3815 30.0088
		-19.2225 9.0309 11.0830
		-16.1855 7.2357 16.0203
		-15.9622 7.0822 12.0282
		-4.7818 10.1020 27.1576
		-3.4692 9.8252 27.4679
		-9.8948 6.8147 23.0928
		-8.9218 7.7718 24.1680
		-6.8003 10.0976 26.4067
		-9.2339 9.5775 25.2312
		-20.7397 20.9304 20.2192
		-18.6105 19.9904 20.5791
		-18.5084 18.6696 22.0569
		-20.9680 19.2037 20.7053
		-16.5054 26.1655 11.8827
		-22.3596 32.2456 11.0082
		-19.0159 34.7673 13.8019
		-1.7466 29.1360 27.5682
		0.0411 29.0665 27.9143
		-1.9456 33.4698 28.2208
		-4.4799 33.4475 27.0905
		-5.3082 36.8842 27.8783
		-2.2133 36.8193 29.0402
		-5.0700 28.8195 25.6304
		-7.2818 29.0463 24.6952
		-23.4145 28.2744 9.3497
		-22.9682 24.8886 9.5632
		-23.7482 24.4349 17.8265
		-24.9104 23.2376 16.0020
		-17.4108 34.7415 22.7969
		-18.2327 38.1421 22.6157
		-3.7797 29.0126 26.5092
		-9.0147 5.6972 -0.4020
		-12.5053 7.4955 -2.0698
		-6.9882 48.2982 27.6247
		-7.2712 53.2842 26.2277
		-3.0397 53.6209 27.6685
		-2.9435 48.4312 28.9882
		-3.1328 58.2148 25.6342
		-7.5682 57.8002 24.0997
		0.0411 53.7104 28.0832
		0.0411 48.4621 29.3718
		0.0411 43.5050 29.9040
		-2.7887 43.5644 29.5642
		-10.6205 17.2745 24.7675
		-14.6524 17.0204 23.7486
		-2.6446 12.5112 29.5451
		0.0411 9.3948 28.3597
		0.0411 11.6418 28.3340
		-1.9329 11.5121 27.5690
		-1.5631 9.5085 28.0222
		-22.4095 22.3797 18.4942
		-22.9525 20.7683 18.0046
		-26.5237 30.0072 -4.3495
		-27.5423 31.3801 2.2571
		-26.9037 27.8647 2.8253
		-26.1535 26.5706 -3.4559
		-21.8055 10.7106 10.1699
		-10.1986 5.1723 10.9455
		-8.5006 4.6831 8.0608
		-12.5718 6.2624 3.8525
		-15.8512 7.0622 8.9683
		-4.7657 10.0786 27.1793
		-4.9515 10.1038 27.1014
		-11.4660 9.1053 23.8675
		-14.1865 8.6077 22.0712
		-16.6278 8.3042 2.5896
		-26.4216 42.1327 -8.1884
		-28.7067 43.8451 -1.9705
		-28.6856 40.6474 -0.6923
		-26.6166 38.8808 -6.8272
		-18.4497 11.4314 21.7380
		-15.5546 11.9818 23.4517
		-13.9928 10.5598 23.4559
		-16.2220 9.9088 22.0497
		-17.8299 16.8858 22.7380
		-20.9477 16.8061 21.1718
		-8.6569 13.4290 -18.8314
		-7.8739 9.9955 -15.5202
		0.0411 9.2688 -17.6453
		0.0411 12.6863 -20.8298
		-20.9367 11.8025 0.7864
		-22.5965 12.2133 4.4299
		-19.5921 9.0878 5.6141
		-15.6860 7.9080 19.4747
		-15.0533 19.5802 22.0451
		-11.1354 20.0567 22.8325
		-10.9254 18.7433 23.8507
		-15.0507 18.4234 23.1169
		-28.1145 34.8862 7.1006
		-22.2074 13.3562 0.1436
		-24.1244 17.1501 -1.0289
		-25.1369 18.0337 3.5733
		-23.6639 13.9593 4.0067
		-2.4008 3.3242 12.7310
		0.0411 2.9870 13.0114
		0.0411 2.8382 11.7020
		-28.4690 38.0667 6.5217
		-28.6899 41.4261 5.6473
		-27.8112 43.1432 11.8654
		-7.0505 4.0599 15.0341
		-2.9694 2.3248 20.4567
		-2.6768 3.2161 15.7900
		0.0411 36.5887 29.4510
		0.0411 33.2935 28.6326
		-24.4984 17.8752 15.1239
		-25.2097 18.1206 9.5791
		-25.9571 22.8246 9.2227
		-28.5825 48.1528 3.1682
		-27.7981 50.6556 8.7912
		-27.8924 46.8772 10.4726
		-28.7474 44.7497 4.4541
		-23.2505 13.8416 15.1643
		-23.6113 13.6347 9.8424
		-20.7296 16.0527 -7.9169
		-21.9671 20.0094 -9.8748
		-25.1958 21.3683 -2.0690
		-8.8159 21.4975 23.4604
		-11.8413 19.2005 15.1257
		-7.6687 20.4826 16.0305
		-14.6898 35.4003 16.1063
		-10.0694 33.8754 17.1735
		-23.3380 17.2793 18.3840
		-22.2491 14.1521 18.9333
		-15.6537 19.3139 13.9243
		-26.6808 32.9014 -5.5869
		-28.0120 34.3179 1.4817
		-10.7405 10.9827 24.8865
		-20.5311 21.3378 11.1953
		-17.2530 11.0114 -4.8690
		-24.4474 45.3528 17.6699
		-24.7281 49.1937 15.9071
		-19.6556 51.0485 19.7211
		-19.9675 54.8306 17.5871
		-14.8757 56.4202 20.5466
		-14.4106 52.2659 22.6110
		0.0411 1.9177 21.6270
		0.0411 2.7650 16.2112
		-26.4718 47.3956 -9.5917
		-28.1941 49.1264 -4.7533
		-28.4553 46.6427 -3.4288
		-26.4624 44.7572 -9.0223
		-18.5472 40.1214 22.5220
		-13.0582 40.8588 25.1271
		-20.2370 58.4053 15.1929
		-15.3369 60.3955 18.1844
		-15.6868 14.8723 -13.6426
		-18.4813 12.4444 -5.8022
		-13.7912 11.2670 -10.8824
		-20.2368 14.3533 21.4037
		-16.9287 14.6163 23.2246
		-9.0072 43.6446 27.3686
		-13.4825 43.7015 24.9617
		-13.9397 47.7558 24.0794
		-9.4359 48.1657 26.5707
		-18.8617 42.8957 22.2390
		-9.8005 53.0000 25.1385
		-24.8873 52.7912 13.8200
		-27.6158 53.9790 6.9502
		-24.9852 56.2155 11.5493
		-18.5767 20.2087 12.4794
		-10.1912 57.4333 23.0373
		-10.5942 61.6654 20.6014
		-19.2591 46.8488 21.3324
		0.0411 4.2927 -9.3129
		0.0411 5.3774 -12.0688
		-7.3924 24.1521 24.1343
		-28.3532 37.4653 0.3892
		-26.6135 35.9805 -6.6883
		-28.3034 51.1285 1.6861
		-6.4297 3.9876 12.0115
		-3.3231 -0.4798 -2.7465
		0.0411 5.7067 26.2504
		0.0411 4.5869 25.2891
		-12.8283 9.8909 -9.6664
		-22.8056 25.0053 -11.6626
		-16.6449 19.0360 -16.2960
		-23.0069 28.3035 -12.3982
		-22.8866 31.0474 -12.8056
		-3.3746 3.0916 -3.3370
		0.0411 2.9008 -4.4078
		0.0411 3.6357 -6.5408
		-3.7476 4.0785 -4.8055
		0.0411 8.9527 28.1925
		-1.6962 9.1487 27.6999
		-1.4437 9.5200 28.0110
		0.0411 9.3840 28.3778
		-4.1777 9.9540 27.3092
		-3.4015 9.7690 27.5093
		-22.6056 33.8094 -13.0431
		-6.6120 43.6255 28.3460
		-25.9543 22.6430 3.3241
		0.0411 13.2484 30.6513
		0.0411 9.9962 28.8561
		-2.5222 10.1638 28.2777
		-2.8223 3.1994 22.3435
		0.0411 3.0171 23.3209
		-7.8721 62.0811 21.7082
		-6.0355 40.0486 28.3002
		-2.5198 39.9389 29.5626
		-3.2244 62.5110 23.4550
		0.0411 20.6923 28.6654
		-2.8293 20.3553 27.8106
		0.0411 62.6808 24.1801
		0.0411 58.3201 25.9335
		-5.6876 18.8190 26.4174
		-8.4445 40.1449 27.3900
		-11.1547 5.3988 13.9560
		0.0411 39.7698 29.8990
		-17.3037 24.2072 -18.1217
		-7.4072 8.6981 -13.9517
		-9.1491 18.1277 -21.8851
		-17.4536 27.5303 -18.7578
		-17.3881 30.2694 -19.1915
		-17.2149 33.0115 -19.5243
		0.0411 7.9230 -16.0281
		0.0411 17.5069 -23.9144
		0.0411 23.4143 -25.7164
		-9.5392 23.9022 -23.7612
		-9.6403 27.2459 -24.3091
		0.0411 26.7654 -26.1578
		0.0411 29.3524 -26.4924
		-9.6126 29.8644 -24.6375
		0.0411 31.2975 -26.5328
		-9.5211 32.4153 -24.8560
		-1.9593 7.3544 26.5686
		0.0411 7.0259 27.1904
		-2.7503 9.6424 27.7155
		-4.6868 9.7946 26.8192
		-3.3024 9.4074 26.9496
		-1.3010 8.9688 27.3598
		0.0411 8.7600 27.6948
		-7.6396 32.1534 17.4919
		-5.6661 23.5359 16.7149
		-5.8159 28.2628 17.3819
		-4.8654 9.5787 26.2036
		-3.3370 8.9384 26.0130
		-1.1407 8.0146 26.0946
		0.0411 7.5585 26.6662
		-1.3053 7.4547 24.0057
		0.0411 6.8910 24.5618
		-2.7509 11.1210 27.3307
		-3.4564 10.7261 27.1043
		-1.9150 11.8664 26.5995
		-2.8747 11.5301 26.5522
		-3.7586 11.1264 26.5177
		-4.0842 10.5667 26.9834
		-4.7462 10.4821 26.8184
		-4.4769 10.7859 26.3517
		-4.9848 10.4948 26.1849
		-4.9537 10.2214 26.7741
		-5.2039 10.1084 26.1883
		-3.5980 8.1248 23.7008
		0.0411 12.1234 27.0553
		0.0411 12.1902 24.2741
		-2.1940 11.9845 23.9465
		-5.2059 9.1494 23.6394
		-3.0669 11.6998 23.8656
		-4.0237 11.3293 23.7793
		0.0411 19.5255 31.6680
		0.0411 16.6342 31.5675
		-5.4784 10.3712 23.6234
		-5.5652 9.7742 23.6181
		0.0411 -0.6458 -3.5701
		-4.9183 10.9071 23.6859
		-13.4282 53.6843 32.8476
		-9.8807 53.4292 38.0525
		-9.5362 44.9549 37.3996
		-13.0899 45.1119 31.9945
		-6.4958 39.6194 30.9691
		-5.2973 31.8487 28.4749
		-8.7681 40.4832 35.2642
		1.3276 74.0774 7.9717
		-5.2459 70.0748 23.5471
		-7.1267 70.9858 25.9371
		-5.7140 45.0929 32.1209
		-5.8024 53.7986 31.3564
		-10.6979 39.6780 30.7972
		-5.8960 61.4973 30.2855
		-10.2806 61.7735 33.7396
		-10.4422 69.1027 25.3452
		-11.6881 59.6253 28.6976
		-19.5350 54.3921 28.7347
		-17.8942 54.5139 34.1974
		-18.7021 47.8413 33.3374
		-19.9892 47.9769 29.1416
		-16.3906 40.6134 29.1295
		-17.1680 33.7522 29.1045
		-19.1953 39.1159 31.2770
		1.9098 73.7682 8.4966
		-7.3791 70.4402 22.8454
		-10.4792 70.4582 24.7768
		-13.3512 47.4472 30.4349
		-12.1572 54.8053 30.1764
		-20.3779 39.0469 28.3469
		-10.2025 60.7695 29.8719
		-14.5054 63.3286 31.8118
		-14.0153 68.5115 22.8440
		-17.8230 61.0585 26.3473
		-25.6189 54.2630 23.1969
		-24.9398 54.5976 29.8004
		-25.3703 47.8415 29.3928
		-27.2639 48.6064 23.0814
		-22.6211 38.5641 25.6857
		-23.3657 28.2048 22.2095
		-25.8787 37.8286 27.3835
		3.3414 74.2958 9.1767
		-11.1268 69.3712 21.7434
		-14.0460 70.1824 21.9082
		-19.8170 46.9784 28.3350
		-18.2515 54.9134 28.3635
		-27.6435 38.5342 22.5449
		-16.9458 61.6321 26.7241
		-20.5600 63.4550 25.8901
		-15.9515 68.3067 19.9264
		-21.8537 61.5090 22.6173
		-30.4275 48.0170 15.8248
		-30.6142 48.1381 22.0337
		-30.5968 34.6972 20.3496
		-31.7040 33.2836 14.4778
		-25.5572 28.3929 19.9784
		-23.8858 13.2455 20.0805
		-29.6081 26.3100 18.5515
		4.7662 74.1216 10.0858
		-15.6382 69.2939 20.8188
		-18.6181 69.7779 19.3303
		-26.7532 33.9250 21.4313
		-24.6787 48.1946 24.1803
		-30.5853 25.7861 14.3052
		-21.9562 60.0905 24.0626
		-26.1221 60.7904 23.6461
		-20.1695 69.1978 15.3466
		-26.4144 59.2809 17.1685
		-33.5727 46.7731 7.1943
		-36.0982 46.4364 12.8008
		-36.3038 24.6696 13.2592
		-35.2835 22.5182 4.7998
		-26.3362 5.1158 18.3344
		-18.5209 -13.1104 21.3640
		-29.9253 2.8588 14.8205
		5.0329 73.4888 11.5579
		-19.5404 69.7795 15.4570
		-20.0210 72.2361 11.3123
		-29.0723 23.6277 15.8453
		-30.2539 43.4413 16.5288
		-30.4454 5.7081 8.0237
		-25.5992 59.3934 18.1975
		-29.5758 61.8918 13.9243
		-19.0360 70.4385 8.8294
		-28.6103 60.0229 7.1050
		-34.5583 40.1510 -8.9039
		-40.4223 43.8470 -0.0041
		-38.3914 26.6830 -2.5143
		-34.4461 29.3703 -8.7574
		-37.0846 16.5275 -3.6790
		-34.0771 17.5360 -7.1009
		4.9949 73.6423 14.4259
		-20.3791 69.8954 9.8126
		-20.7334 71.9309 5.2574
		-35.5219 -3.5289 -2.3783
		-33.8818 -23.6701 -4.2450
		-36.6171 -7.0303 -5.4201
		-34.3036 39.3267 8.9649
		-33.9769 30.9187 8.7963
		-35.4536 -4.0894 -11.4017
		-29.2064 60.1734 8.8602
		-32.6838 60.6866 2.5100
		-18.1325 70.8590 -0.5130
		-30.0467 60.4436 -6.2881
		-32.8472 6.4855 -10.8182
		-35.1616 6.9900 -4.8581
		-35.8820 5.7603 1.2466
		-35.4273 19.1158 3.8964
		21.1972 48.5858 26.1308
		27.6585 54.6751 26.6761
		30.3428 38.2966 25.5974
		24.7471 34.4863 24.4653
		30.4165 24.3992 18.3593
		23.3229 19.7513 21.0575
		27.6544 23.7801 22.1705
		-3.2690 72.9017 9.0352
		8.9496 72.1153 18.6532
		5.9349 73.1261 22.0208
		31.6023 35.8470 17.1856
		28.8869 54.2052 19.1269
		25.4756 25.2515 22.0069
		20.0391 65.4330 19.1892
		18.4497 67.5948 25.8921
		3.0128 71.7209 22.6364
		13.2496 63.7355 26.0904
		28.5046 50.1545 19.4796
		35.6353 49.9019 15.8465
		39.0345 30.2948 11.6751
		32.7696 30.6332 17.3430
		31.9980 4.0248 9.5369
		18.1680 -13.1482 19.7270
		30.4286 0.4847 14.8333
		-5.1104 72.8956 10.9395
		15.2769 72.3130 12.1900
		10.1090 74.5652 14.7642
		35.5825 31.8462 2.7755
		33.7528 50.8191 9.1040
		28.4349 4.3417 17.2977
		25.4772 65.2386 10.2958
		28.4370 66.2077 16.6741
		7.2575 72.7479 19.2975
		19.4102 65.0775 20.6155
		7.3799 53.6707 31.8715
		13.9934 58.2414 35.9837
		17.6046 51.4167 35.3418
		9.8988 47.2278 32.2374
		23.2723 42.9087 25.6943
		19.3895 28.9193 23.2028
		20.3173 40.6436 31.6759
		-2.6177 73.6173 9.0573
		7.6884 70.8078 18.3320
		5.2644 71.3915 22.7682
		20.8306 52.0412 25.9070
		17.5684 57.8237 25.2312
		14.2683 40.4331 29.9256
		11.5491 66.1697 24.2191
		10.2041 66.3542 29.0589
		1.5119 70.6501 23.2450
		3.5348 63.1331 28.7766
		-6.2801 54.4562 31.5674
		0.9568 55.0062 37.8408
		2.0232 46.2720 37.3206
		-5.3042 44.9864 32.8360
		8.3772 41.1244 32.7088
		11.2719 26.2241 29.3775
		4.1530 38.3464 36.4639
		-0.7632 73.6459 7.8663
		2.1787 70.6625 23.0056
		-0.4473 72.8570 25.0011
		8.6489 46.2854 32.5480
		7.6939 55.6170 30.0994
		-2.7837 37.3269 33.0058
		4.8066 63.7896 28.6113
		-0.4629 63.4460 33.6273
		-5.1486 69.6835 24.4054
		-6.7042 61.8583 30.2841
		-0.3864 42.6816 -32.2217
		-7.4924 43.5475 -37.3909
		-8.5739 21.2016 -35.1893
		-0.8667 19.0311 -31.6107
		-8.9128 8.7222 -32.1634
		-0.4905 7.3618 -31.0745
		-0.9582 72.0574 17.8016
		-8.1862 74.2391 -2.3135
		-4.1680 77.7909 -2.4076
		-9.9709 -13.7836 -29.3477
		-4.6222 -24.8187 -17.6218
		-8.3942 -14.6593 -30.9533
		-11.7697 45.0354 -30.4764
		-13.3605 17.6848 -29.5165
		-4.3624 -12.3561 -29.6447
		-12.5182 66.1849 -22.2305
		-6.3129 69.0903 -27.8883
		2.0982 74.1479 -6.7942
		0.4439 65.6403 -23.4804
		-1.7687 -6.1143 -34.7687
		-9.0699 -6.7138 -34.9409
		-11.7002 -6.9377 -30.6144
		-11.9088 6.9599 -30.5724
		19.8892 40.8443 -27.6759
		15.5622 37.9379 -34.0988
		12.8024 20.3650 -31.1300
		17.6269 17.6203 -26.3157
		14.5395 7.2090 -32.9042
		19.7688 2.6461 -28.2185
		-3.8231 72.1355 18.0263
		2.5031 74.4895 -6.4336
		6.1296 78.6412 -5.0991
		8.2383 -18.3827 -29.5963
		4.4836 -27.4384 -24.4409
		11.5057 -19.4285 -29.3095
		7.4730 43.9129 -31.6660
		5.3351 17.0929 -29.6714
		16.5404 -17.4899 -26.2478
		6.1495 64.5095 -24.4502
		15.0634 66.2411 -28.2658
		10.1452 73.7187 -3.8430
		18.9295 63.7422 -21.2116
		18.5695 -9.2862 -29.4966
		15.4330 -8.0128 -34.0476
		8.5575 -9.8129 -33.9378
		5.7409 4.5410 -31.7399
		34.7237 40.6981 0.5707
		37.3206 41.8501 -6.5701
		36.7896 19.4413 -7.7551
		35.6657 17.0268 -0.9527
		35.4983 4.0785 -10.3503
		37.6442 4.0332 -5.3604
		-6.7777 71.6122 13.7193
		15.7900 72.7586 -1.7733
		15.4931 77.3645 2.5538
		30.4696 -14.2186 -13.6285
		27.2507 -21.6033 -9.7150
		34.5774 -15.2518 -12.5764
		31.2594 43.0284 -11.6006
		29.1724 16.4684 -13.0045
		33.3376 -13.3253 -9.1215
		26.9782 59.9511 -8.1835
		34.4665 60.3354 -3.2296
		17.8914 72.2900 8.6934
		31.6067 59.0372 4.0477
		37.2472 -4.4234 -7.0142
		37.8659 -5.1057 -11.8384
		31.0844 -7.0297 -15.4235
		31.1648 2.2028 -12.9518
		-21.2270 43.5657 -27.3250
		-27.8425 41.3262 -31.1955
		-26.2013 20.1176 -27.8405
		-19.4204 17.0339 -27.3775
		-24.1127 4.3636 -30.1089
		-20.1643 1.1368 -25.4016
		2.4493 72.4158 16.6763
		-15.1623 74.2273 1.0796
		-11.7112 77.1351 -0.7935
		-24.0793 -19.2730 -20.6354
		-18.9485 -23.6152 -17.4580
		-23.2801 -18.9504 -22.7420
		-30.8693 43.0940 -18.1056
		-29.8971 16.0509 -19.1045
		-21.5156 -17.8067 -21.9934
		-25.5164 63.9230 -12.9880
		-21.3858 67.7679 -20.1620
		-9.3423 73.7399 -5.3339
		-15.3817 65.2171 -20.3029
		-21.2656 -7.1584 -27.0077
		-25.0798 -5.3219 -30.0031
		-29.1682 -8.5958 -25.8768
		-27.0654 1.5224 -23.0921
		25.0488 43.6167 -17.3523
		23.7942 46.3619 -24.3712
		24.5640 21.0025 -26.0229
		27.9792 18.6359 -19.0910
		23.1380 8.4574 -25.8271
		26.4866 5.4030 -19.7820
		-5.1826 71.6120 16.6387
		7.5735 74.5130 -5.9684
		10.7136 78.6504 -3.6201
		17.4991 -13.1993 -24.0886
		14.4478 -21.4528 -18.2495
		20.4467 -15.2745 -25.5867
		17.0941 45.3598 -28.4270
		16.9241 17.1313 -27.3988
		24.8843 -15.3313 -22.9444
		13.3318 63.5948 -21.1274
		22.3019 64.4277 -21.2944
		14.1017 73.7475 -1.2262
		24.3479 62.7346 -13.9479
		28.0271 -2.3102 -21.3754
		24.3614 -0.8815 -25.4422
		19.4878 -3.1221 -25.3056
		16.0157 5.5926 -26.6368
		30.9576 41.5172 -9.5526
		31.2309 42.7090 -17.4158
		30.4581 20.0921 -16.8334
		32.0690 17.1122 -9.6923
		31.1375 6.5150 -19.1861
		31.8242 5.0451 -11.7815
		-6.0904 72.1916 16.0418
		10.8273 74.7164 -3.0320
		13.3581 78.8487 -0.0332
		26.5328 -12.9545 -21.0050
		24.2934 -22.1972 -18.1986
		29.5073 -14.2023 -22.0450
		23.2461 45.6177 -21.1366
		24.7382 17.3105 -20.3875
		31.6672 -13.1720 -17.0472
		20.5755 63.4004 -15.8062
		29.9693 62.0709 -12.4651
		16.0794 73.9230 3.0991
		29.8670 59.6414 -4.5864
		32.4678 -1.3726 -14.6879
		30.5198 -2.4564 -21.0699
		25.8667 -4.9352 -21.1071
		25.3211 5.0135 -21.1724
		8.6280 42.3351 -29.8318
		5.6246 38.9531 -35.9603
		2.9648 20.0607 -32.3513
		8.7510 17.8134 -28.2397
		3.1571 7.4220 -33.8582
		6.9474 5.1665 -29.7050
		-2.5258 72.2799 18.2432
		-2.2756 74.4618 -6.8539
		1.5774 78.1888 -6.1832
		-2.5385 -13.1687 -30.5792
		-2.4782 -25.9926 -22.1590
		-0.9443 -14.9823 -32.8883
		-4.2948 45.1994 -31.8138
		-3.5088 16.2993 -30.0620
		3.4688 -12.9602 -29.9866
		-3.5243 65.3434 -24.8947
		4.6578 67.0920 -30.1357
		5.7017 73.7757 -5.6307
		9.6164 64.6736 -23.8137
		8.2528 -0.4980 -30.4872
		2.6997 -0.7162 -32.7151
		-0.8374 -3.2662 -30.6914
		-1.7589 5.0670 -30.8568
		-10.2053 41.9703 -30.2573
		-20.6629 41.2522 -33.9841
		-18.1910 18.5132 -31.2907
		-10.2798 17.3294 -29.5748
		-16.5205 7.5374 -32.7808
		-12.3759 3.3337 -28.2985
		0.7560 72.3403 17.6894
		-10.5134 74.3122 -3.7927
		-6.7900 77.5907 -4.6821
		-19.1380 -19.9517 -25.4681
		-11.7908 -25.1846 -19.5545
		-18.8712 -20.9841 -27.4801
		-23.7017 45.3493 -25.3572
		-20.7859 16.2229 -24.3973
		-14.7207 -19.1590 -26.8107
		-18.2752 66.1643 -18.8771
		-12.6426 68.6905 -24.8345
		-2.6882 73.7313 -5.8490
		-5.7238 65.6953 -22.6349
		-13.9628 -8.6478 -30.7043
		-19.1143 -8.5604 -34.6575
		-21.5400 -10.9189 -30.1494
		-20.2270 4.2179 -26.8414
		-29.1426 43.4776 -20.0839
		-33.9135 46.1734 -18.3982
		-33.9027 20.9782 -19.2918
		-28.7491 18.6382 -19.8015
		-32.0744 3.4455 -21.3169
		-27.4522 3.5276 -22.8524
		3.3905 72.4698 15.5749
		-16.9138 71.9128 4.3711
		-14.7513 75.5159 1.7069
		-32.5296 -16.8058 -12.7388
		-29.3161 -24.5431 -10.4651
		-32.1170 -18.1640 -15.6785
		-35.4265 39.5318 -7.5716
		-34.7255 14.4423 -6.9889
		-28.3098 -16.5067 -18.8171
		-30.9529 61.1249 -4.6578
		-29.6317 64.7483 -11.4013
		-14.1487 73.7720 -3.1478
		-23.8786 65.0292 -13.0368
		-29.3201 -6.7756 -22.1028
		-34.6507 -6.6026 -20.0772
		-34.2217 -6.1345 -14.8121
		-33.7192 4.6940 -13.1404
		35.3281 40.5681 9.0684
		39.5117 41.8857 3.1608
		34.9126 17.8376 2.6366
		32.6504 14.4046 7.9292
		36.3905 3.6738 -3.9167
		34.1116 1.6419 -0.8717
		-7.3483 72.5492 13.2667
		18.2837 72.7586 2.0636
		17.1052 77.3645 6.2376
		33.6101 -14.0791 -8.1325
		30.0377 -22.1925 -4.3410
		35.8183 -15.0713 -7.8210
		35.6089 41.3176 -2.2349
		34.5344 14.1908 -5.7041
		34.1106 -13.8541 -4.1615
		29.8596 59.6164 -1.7596
		34.7073 59.6417 4.5098
		18.1923 72.2900 12.7387
		31.1145 57.8542 11.1395
		34.2164 -6.1958 -3.1424
		35.7791 -5.2173 -5.9406
		34.1276 -6.1377 -9.5229
		33.5257 2.7282 -9.5490
		-6.3690 20.5006 -25.1817
		0.4819 20.0282 -28.1942
		0.4819 13.8510 -25.5915
		-6.3631 14.2502 -23.0417
		0.4819 0.9519 -11.2284
		-3.4656 5.0779 -17.6453
		0.4819 4.6963 -19.0379
		-5.1960 36.3962 -27.5831
		0.4819 32.9554 -31.0403
		0.4819 28.6450 -30.3912
		-5.9766 28.1415 -26.8288
		-24.3262 20.5154 -11.6081
		-22.0692 20.0282 -18.7459
		-20.1136 13.8510 -17.0287
		-22.7143 14.2502 -10.2028
		-9.3210 0.9519 -7.5509
		-16.7476 5.0779 -8.8191
		-15.1892 4.6963 -12.7042
		-25.7893 38.5081 -13.7845
		-24.0635 37.9097 -20.4161
		-23.7200 30.8538 -20.2420
		-25.3051 30.9238 -12.5778
		-15.2850 20.5006 -21.9060
		-13.6810 14.2502 -20.4894
		-11.5380 5.0779 -14.7514
		-18.2962 35.7025 -24.2116
		-16.7816 28.7352 -23.1804
		-18.0968 20.5006 -20.3309
		-12.7533 20.0282 -25.5712
		-11.8332 13.8510 -23.1366
		-17.3343 14.2502 -18.3314
		-6.7548 0.9519 -9.7012
		-12.7161 5.0779 -14.3080
		-9.5159 4.6963 -17.0064
		-18.0521 35.6284 -23.1468
		-13.6917 35.7892 -26.8521
		-13.5301 28.8957 -27.5690
		-18.3122 28.8085 -21.8535
		-5.2798 20.5006 -25.1755
		-4.5288 14.2502 -23.1716
		-5.3311 5.0779 -17.0993
		-7.4299 33.3248 -29.2737
		-6.2293 28.0339 -26.8539
		-27.2601 20.5289 0.5657
		-28.5148 20.0282 -6.8173
		-25.9905 13.8510 -6.1840
		-25.1831 14.2502 1.0756
		-12.0589 0.9519 -2.6888
		-19.2436 5.0779 -0.4215
		-19.6339 4.6963 -4.5894
		-29.8624 42.6355 0.1382
		-31.0892 41.0634 -7.6095
		-30.6458 33.9586 -8.3996
		-28.7624 33.4693 0.6674
		-23.9258 20.5018 -12.7307
		-21.8517 14.2502 -12.2028
		-17.3224 5.0779 -8.0792
		-27.0991 37.7781 -15.3335
		-25.6191 30.1593 -14.5434
		7.3331 20.5006 -25.1817
		7.3269 14.2502 -23.0417
		4.4295 5.0779 -17.6453
		6.1598 36.3962 -27.5831
		6.9406 28.1415 -26.8288
		25.2901 20.5154 -11.6081
		23.6781 14.2502 -10.2028
		21.0775 13.8510 -17.0287
		23.0331 20.0282 -18.7459
		10.2851 0.9519 -7.5509
		16.1531 4.6963 -12.7042
		17.7115 5.0779 -8.8191
		26.7534 38.5081 -13.7845
		26.2689 30.9238 -12.5778
		24.6838 30.8538 -20.2420
		25.0274 37.9097 -20.4161
		16.2488 20.5006 -21.9060
		14.6448 14.2502 -20.4894
		12.5019 5.0779 -14.7514
		19.2601 35.7025 -24.2116
		17.7455 28.7352 -23.1804
		19.0607 20.5006 -20.3309
		18.2984 14.2502 -18.3314
		12.7971 13.8510 -23.1366
		13.7174 20.0282 -25.5712
		7.7186 0.9519 -9.7012
		10.4799 4.6963 -17.0064
		13.6799 5.0779 -14.3080
		19.0161 35.6284 -23.1468
		19.2760 28.8085 -21.8535
		14.4942 28.8957 -27.5690
		14.6558 35.7892 -26.8521
		6.2436 20.5006 -25.1755
		5.4927 14.2502 -23.1716
		6.2950 5.0779 -17.0993
		8.3937 33.3248 -29.2737
		7.1932 28.0339 -26.8539
		28.2240 20.5289 0.5657
		26.1469 14.2502 1.0756
		26.9544 13.8510 -6.1840
		29.4787 20.0282 -6.8173
		13.0229 0.9519 -2.6888
		20.5978 4.6963 -4.5894
		20.2075 5.0779 -0.4215
		30.8265 42.6355 0.1382
		29.7262 33.4693 0.6674
		31.6099 33.9586 -8.3996
		32.0531 41.0634 -7.6095
		24.8896 20.5018 -12.7307
		22.8156 14.2502 -12.2028
		18.2865 5.0779 -8.0792
		28.0631 37.7781 -15.3335
		26.5830 30.1593 -14.5434
		-9.5640 33.7488 26.6009
		-12.1401 35.3244 25.9825
		-11.5989 36.9274 25.7005
		-8.7393 35.1858 26.4093
		-26.0025 28.7464 18.4037
		-26.0279 27.0585 17.8577
		-27.1741 27.6490 16.9062
		-27.2872 29.0598 17.2816
		-26.2355 33.0845 19.2527
		-22.4438 36.3315 21.2635
		-21.2938 33.4060 21.6698
		-23.7080 31.0522 19.9941
		-12.3970 33.7724 25.1426
		-16.6939 33.8717 22.8428
		-16.9506 35.0614 24.1043
		-7.8819 31.9572 26.5684
		-6.6654 30.2895 26.5691
		-6.9892 30.2068 25.8448
		-8.3110 31.8237 25.7357
		-25.5980 25.3727 17.5962
		-24.7263 23.7334 17.2899
		-25.0135 23.4978 16.7557
		-26.2952 25.4767 16.4341
		-20.6406 32.2736 20.8687
		-23.0136 30.1340 19.1023
		-10.0580 32.8237 25.6806
		-7.0135 32.9393 26.7490
		-24.7038 27.7547 17.9288
		-24.2912 25.5650 17.5708
		-24.1765 28.2729 18.3597
		-26.4560 28.4599 18.2674
		-17.2778 37.9521 23.7217
		-24.0661 23.7963 17.1805
		-6.4174 30.5556 26.9122
		-23.6875 22.2568 17.4509
		-23.9250 22.1377 17.4020
		-24.1887 28.7249 18.3274
		-13.3575 37.9044 26.2401
		-14.6359 38.2514 25.9290
		-14.0486 38.3638 26.0136
		-13.2887 38.2571 26.2896
		-12.1395 44.1548 26.3766
		-16.7882 44.6825 24.3509
		-16.8161 45.2599 24.4331
		-11.8045 44.6205 26.6610
		-8.4451 35.3114 26.8354
		-9.8053 36.2923 26.6638
		-9.5358 36.6337 26.7950
		-8.7801 35.8992 26.9281
		-11.4540 37.2237 26.4982
		-11.2986 37.6132 26.5953
		-22.7662 43.9676 21.3414
		-22.8055 43.5826 21.2552
		-25.2119 42.0248 18.8889
		-24.9172 42.8461 19.3736
		-9.2613 43.0196 27.5188
		-9.0131 43.2922 27.5113
		-19.7961 44.8616 23.0530
		-19.7456 44.3901 22.9871
		-7.4766 41.8465 27.9244
		-7.5931 42.2228 27.8862
		-28.1042 29.3380 17.2850
		-23.6497 22.4565 17.5624
		-14.3141 26.9947 21.2228
		-20.3452 29.8058 19.6834
		-18.7934 32.3354 20.7285
		-16.5223 33.7509 21.9777
		-18.7530 32.6843 20.1096
		-16.3661 34.1737 21.4228
		-20.8311 26.6345 19.0320
		-20.3845 30.0094 19.0105
		-20.8904 26.6730 18.3261
		-20.2328 23.5459 18.8792
		-18.6684 21.1044 19.2500
		-20.2636 23.4187 18.1653
		-16.4093 19.6572 20.0799
		-18.6163 20.8679 18.5554
		-16.2409 19.3463 19.4281
		-13.8690 19.2996 21.2229
		-11.4873 20.0929 22.4816
		-13.5699 18.9705 20.6300
		-8.6819 24.8473 24.4995
		-9.6524 22.0560 23.6405
		-11.0655 19.8047 21.9532
		-9.1387 21.8526 23.1716
		-8.7480 27.9550 24.9098
		-8.1159 24.8029 24.0752
		-9.8116 30.8351 24.8031
		-8.1858 28.0688 24.5063
		-11.6433 32.9102 24.2034
		-9.3067 31.1165 24.3941
		-13.9926 33.9348 23.2069
		-11.2343 33.2953 23.7631
		-13.7066 34.3652 22.7150
		-23.6738 29.6945 18.7261
		-25.9767 30.4870 18.5560
		-27.4004 30.4702 17.6571
		-13.5450 26.8345 22.1206
		-15.6193 28.2682 21.4709
		-15.0855 29.5583 21.9120
		-14.3043 30.2802 22.4390
		-15.0716 29.7364 21.6506
		-14.2508 30.4960 22.2049
		-15.7863 26.6509 21.1961
		-15.6327 28.3718 21.1871
		-15.8068 26.6707 20.8983
		-15.5805 25.0755 21.1316
		-15.0425 23.8304 21.2880
		-15.5910 25.0107 20.8305
		-14.2655 23.0923 21.6383
		-15.0246 23.7096 20.9950
		-14.2076 22.9337 21.3633
		-13.3920 22.9098 22.1206
		-12.5728 23.3145 22.6516
		-13.2891 22.7419 21.8704
		-11.6079 25.7393 23.5032
		-11.9417 24.3159 23.1408
		-12.4277 23.1676 22.4287
		-11.7649 24.2119 22.9427
		-11.6306 27.3243 23.6761
		-11.4132 25.7166 23.3241
		-11.9964 28.7931 23.6312
		-11.4373 27.3824 23.5060
		-12.6265 29.8517 23.3782
		-11.8228 28.9368 23.4586
		-13.4344 30.3742 22.9577
		-12.4858 30.0479 23.1925
		-13.3360 30.5937 22.7501
	}
	face 761 {
		4 V(0 1 2 3) M(0)
		4 V(4 5 6 7) M(0)
		4 V(8 9 10 11) M(0)
		4 V(17 16 15 18) M(0)
		4 V(20 19 16 17) M(0)
		4 V(21 22 23 24) M(0)
		4 V(25 13 12 26) M(0)
		4 V(27 28 29 30) M(0)
		4 V(25 26 31 32) M(0)
		4 V(34 35 36 37) M(0)
		4 V(38 33 19 20) M(0)
		4 V(38 20 39 40) M(0)
		4 V(41 14 13 25) M(0)
		4 V(18 41 42 43) M(0)
		4 V(44 39 45 46) M(0)
		4 V(47 48 49 50) M(0)
		4 V(49 21 51 50) M(0)
		4 V(52 53 54 55) M(0)
		4 V(56 57 35 34) M(0)
		4 V(20 17 45 39) M(0)
		4 V(58 59 60 61) M(0)
		4 V(62 63 64 65) M(0)
		4 V(66 67 68 69) M(0)
		4 V(52 55 70 71) M(0)
		4 V(72 56 34 73) M(0)
		4 V(74 75 76 77) M(0)
		4 V(78 79 80 51) M(0)
		4 V(81 3 82 83) M(0)
		4 V(84 85 30 29) M(0)
		4 V(9 8 86 87) M(0)
		4 V(88 29 28 89) M(0)
		4 V(90 91 92 93) M(0)
		3 V(94 95 96) M(0)
		4 V(68 67 97 98) M(0)
		4 V(99 100 101 102) M(0)
		4 V(70 103 104 71) M(0)
		4 V(105 106 107 57) M(0)
		4 V(107 108 35 57) M(0)
		4 V(53 109 110 54) M(0)
		4 V(100 70 55 101) M(0)
		4 V(99 97 111 100) M(0)
		4 V(63 111 97 67) M(0)
		4 V(100 111 103 70) M(0)
		4 V(112 32 31 58) M(0)
		4 V(112 58 61 113) M(0)
		4 V(114 115 116 117) M(0)
		4 V(118 116 115 119) M(0)
		4 V(117 116 120 121) M(0)
		4 V(117 121 122 123) M(0)
		4 V(124 24 23 125) M(0)
		4 V(51 80 126 50) M(0)
		4 V(127 128 129 130) M(0)
		4 V(131 132 108 107) M(0)
		4 V(133 134 135 136) M(0)
		4 V(81 137 0 3) M(0)
		4 V(138 139 140 141) M(0)
		4 V(88 48 142 143) M(0)
		4 V(88 143 84 29) M(0)
		4 V(144 87 86 145) M(0)
		4 V(140 112 113 146) M(0)
		4 V(41 25 32 42) M(0)
		4 V(147 148 149 150) M(0)
		4 V(151 152 153 154) M(0)
		4 V(93 92 155 156) M(0)
		4 V(157 158 159 160) M(0)
		4 V(144 145 154 153) M(0)
		4 V(161 162 163 146) M(0)
		4 V(82 164 76 75) M(0)
		4 V(165 166 167 168) M(0)
		4 V(34 37 169 5) M(0)
		4 V(170 171 172 173) M(0)
		4 V(174 175 176 44) M(0)
		4 V(6 5 169 177) M(0)
		4 V(140 42 32 112) M(0)
		4 V(6 177 178 179) M(0)
		4 V(180 74 181 182) M(0)
		4 V(99 102 183 184) M(0)
		4 V(99 184 98 97) M(0)
		4 V(185 186 187 108) M(0)
		4 V(139 43 42 140) M(0)
		4 V(188 189 190 191) M(0)
		4 V(185 192 193 186) M(0)
		4 V(171 194 195 196) M(0)
		4 V(166 197 65 167) M(0)
		4 V(198 199 197 166) M(0)
		3 V(94 200 201) M(0)
		4 V(185 202 203 192) M(0)
		3 V(94 198 204) M(0)
		4 V(205 206 134 133) M(0)
		4 V(88 89 207 49) M(0)
		3 V(94 208 106) M(0)
		4 V(113 209 161 146) M(0)
		4 V(192 203 1 0) M(0)
		4 V(7 6 179 210) M(0)
		3 V(94 96 200) M(0)
		4 V(190 211 210 179) M(0)
		4 V(212 213 214 215) M(0)
		4 V(216 217 182 181) M(0)
		4 V(218 219 220 221) M(0)
		4 V(54 110 222 223) M(0)
		4 V(214 213 224 225) M(0)
		4 V(226 194 227 228) M(0)
		4 V(229 156 155 230) M(0)
		4 V(231 232 233 234) M(0)
		4 V(223 222 235 232) M(0)
		4 V(215 236 234 233) M(0)
		4 V(190 189 237 211) M(0)
		4 V(109 72 73 110) M(0)
		4 V(237 189 238 239) M(0)
		3 V(94 240 208) M(0)
		4 V(215 214 241 236) M(0)
		4 V(211 237 213 212) M(0)
		4 V(241 214 225 242) M(0)
		4 V(110 73 4 222) M(0)
		4 V(213 237 239 224) M(0)
		4 V(235 7 210 243) M(0)
		4 V(222 4 7 235) M(0)
		4 V(176 40 39 44) M(0)
		4 V(59 244 245 60) M(0)
		4 V(211 212 243 210) M(0)
		4 V(197 246 62 65) M(0)
		4 V(247 248 150 149) M(0)
		4 V(147 221 220 148) M(0)
		4 V(249 238 189 188) M(0)
		4 V(46 139 138 250) M(0)
		4 V(252 253 11 10) M(0)
		4 V(226 228 158 157) M(0)
		4 V(254 209 113 61) M(0)
		4 V(195 255 136 196) M(0)
		4 V(195 194 226 256) M(0)
		4 V(257 258 205 133) M(0)
		4 V(259 260 261 262) M(0)
		4 V(263 264 265 266) M(0)
		4 V(47 267 142 48) M(0)
		3 V(47 268 267) M(0)
		4 V(59 262 261 244) M(0)
		4 V(26 12 251 259) M(0)
		4 V(170 173 162 161) M(0)
		4 V(269 248 205 258) M(0)
		4 V(46 250 174 44) M(0)
		4 V(232 235 243 233) M(0)
		4 V(51 21 24 78) M(0)
		4 V(114 270 231 234) M(0)
		4 V(114 234 236 115) M(0)
		4 V(196 271 172 171) M(0)
		4 V(126 272 273 274) M(0)
		4 V(164 82 3 2) M(0)
		4 V(275 276 216 181) M(0)
		4 V(119 241 242 277) M(0)
		4 V(278 279 102 101) M(0)
		4 V(118 119 277 280) M(0)
		4 V(119 115 236 241) M(0)
		4 V(281 282 64 66) M(0)
		3 V(281 66 69) M(0)
		4 V(118 280 283 284) M(0)
		4 V(118 284 120 116) M(0)
		4 V(167 65 285 124) M(0)
		4 V(212 215 233 243) M(0)
		4 V(55 54 223 286) M(0)
		4 V(247 206 205 248) M(0)
		4 V(83 82 75 287) M(0)
		4 V(181 74 77 275) M(0)
		4 V(63 67 66 64) M(0)
		4 V(279 123 122 288) M(0)
		4 V(279 288 183 102) M(0)
		4 V(278 270 123 279) M(0)
		4 V(196 136 135 271) M(0)
		4 V(17 18 43 45) M(0)
		4 V(132 202 185 108) M(0)
		4 V(18 15 14 41) M(0)
		4 V(194 171 170 227) M(0)
		4 V(256 289 255 195) M(0)
		4 V(290 254 61 60) M(0)
		4 V(26 259 262 31) M(0)
		4 V(45 43 139 46) M(0)
		4 V(58 31 262 59) M(0)
		4 V(257 133 136 255) M(0)
		4 V(226 157 291 256) M(0)
		4 V(257 292 293 258) M(0)
		4 V(294 269 258 293) M(0)
		4 V(257 255 289 292) M(0)
		4 V(295 290 60 245) M(0)
		4 V(296 297 298 291) M(0)
		4 V(299 300 301 302) M(0)
		4 V(108 187 36 35) M(0)
		4 V(302 301 303 304) M(0)
		4 V(298 297 300 299) M(0)
		4 V(157 160 296 291) M(0)
		4 V(292 299 302 293) M(0)
		4 V(289 298 299 292) M(0)
		4 V(256 291 298 289) M(0)
		4 V(293 302 304 294) M(0)
		4 V(305 264 263 306) M(0)
		4 V(278 286 231 270) M(0)
		4 V(278 101 55 286) M(0)
		4 V(286 223 232 231) M(0)
		4 V(264 30 85 265) M(0)
		3 V(274 130 307) M(0)
		4 V(274 307 268 47) M(0)
		4 V(84 308 309 85) M(0)
		4 V(0 137 193 192) M(0)
		4 V(265 310 311 266) M(0)
		3 V(94 201 312) M(0)
		4 V(313 246 197 199) M(0)
		4 V(201 53 52 312) M(0)
		4 V(106 208 131 107) M(0)
		4 V(200 109 53 201) M(0)
		3 V(94 313 199) M(0)
		4 V(168 167 124 125) M(0)
		3 V(94 314 313) M(0)
		4 V(95 56 72 96) M(0)
		3 V(94 105 95) M(0)
		4 V(314 312 71 104) M(0)
		4 V(314 104 246 313) M(0)
		4 V(105 57 56 95) M(0)
		3 V(312 52 71) M(0)
		3 V(94 106 105) M(0)
		3 V(94 199 198) M(0)
		4 V(315 316 309 308) M(0)
		4 V(85 309 310 265) M(0)
		4 V(317 318 311 310) M(0)
		4 V(319 320 318 317) M(0)
		4 V(321 322 268 307) M(0)
		4 V(321 307 130 129) M(0)
		4 V(321 129 323 324) M(0)
		4 V(321 324 325 322) M(0)
		4 V(326 327 142 267) M(0)
		4 V(326 267 268 322) M(0)
		4 V(326 322 325 328) M(0)
		4 V(326 328 329 327) M(0)
		4 V(330 308 84 143) M(0)
		4 V(330 143 142 327) M(0)
		4 V(330 327 329 331) M(0)
		4 V(330 331 315 308) M(0)
		4 V(316 317 310 309) M(0)
		4 V(332 319 317 316) M(0)
		4 V(333 323 129 128) M(0)
		4 V(334 335 323 333) M(0)
		4 V(336 332 316 315) M(0)
		4 V(324 337 338 325) M(0)
		4 V(79 339 340 80) M(0)
		4 V(329 341 342 331) M(0)
		4 V(331 342 336 315) M(0)
		4 V(338 344 328 325) M(0)
		4 V(328 344 341 329) M(0)
		4 V(259 251 343 260) M(0)
		4 V(323 335 337 324) M(0)
		4 V(73 34 5 4) M(0)
		4 V(114 117 123 270) M(0)
		4 V(281 339 79 282) M(0)
		4 V(229 230 152 151) M(0)
		4 V(285 282 79 78) M(0)
		4 V(227 170 161 209) M(0)
		4 V(285 78 24 124) M(0)
		4 V(141 140 146 163) M(0)
		4 V(21 49 207 22) M(0)
		4 V(228 227 209 254) M(0)
		4 V(158 228 254 290) M(0)
		4 V(159 158 290 295) M(0)
		4 V(126 80 340 272) M(0)
		4 V(74 180 287 75) M(0)
		4 V(247 149 178 177) M(0)
		4 V(149 148 191 178) M(0)
		4 V(148 220 188 191) M(0)
		4 V(220 219 249 188) M(0)
		4 V(134 206 169 37) M(0)
		4 V(206 247 177 169) M(0)
		4 V(138 141 83 287) M(0)
		4 V(250 138 287 180) M(0)
		4 V(172 271 187 186) M(0)
		4 V(175 174 182 217) M(0)
		4 V(174 250 180 182) M(0)
		4 V(141 163 81 83) M(0)
		4 V(271 135 36 187) M(0)
		4 V(135 134 37 36) M(0)
		4 V(193 137 162 173) M(0)
		4 V(137 81 163 162) M(0)
		4 V(186 193 173 172) M(0)
		4 V(191 190 179 178) M(0)
		4 V(27 30 264 305) M(0)
		4 V(127 130 274 273) M(0)
		4 V(50 126 274 47) M(0)
		4 V(64 282 285 65) M(0)
		4 V(200 96 72 109) M(0)
		4 V(63 62 103 111) M(0)
		3 V(94 312 314) M(0)
		4 V(246 104 103 62) M(0)
		3 V(208 90 131) M(0)
		4 V(202 132 93 156) M(0)
		4 V(164 2 154 145) M(0)
		4 V(8 11 275 77) M(0)
		4 V(11 253 276 275) M(0)
		4 V(86 8 77 76) M(0)
		4 V(145 86 76 164) M(0)
		4 V(229 151 1 203) M(0)
		4 V(151 154 2 1) M(0)
		4 V(156 229 203 202) M(0)
		4 V(90 93 132 131) M(0)
		4 V(204 198 166 165) M(0)
		3 V(49 48 88) M(0)
		3 V(204 240 94) M(0)
		4 V(204 165 91 240) M(0)
		4 V(9 87 28 27) M(0)
		4 V(168 125 155 92) M(0)
		4 V(87 144 89 28) M(0)
		4 V(144 153 207 89) M(0)
		4 V(305 306 252 10) M(0)
		4 V(27 305 10 9) M(0)
		4 V(152 230 23 22) M(0)
		4 V(153 152 22 207) M(0)
		4 V(230 155 125 23) M(0)
		4 V(92 91 165 168) M(0)
		4 V(240 91 90 208) M(0)
		4 V(345 346 347 348) M(1)
		3 V(349 350 351) M(1)
		3 V(352 353 354) M(1)
		4 V(347 355 349 351) M(1)
		4 V(356 355 347 346) M(1)
		3 V(350 357 351) M(1)
		4 V(347 351 357 348) M(1)
		4 V(358 356 346 359) M(1)
		3 V(360 352 354) M(1)
		4 V(360 354 359 361) M(1)
		4 V(358 359 354 353) M(1)
		4 V(361 359 346 345) M(1)
		4 V(362 363 364 365) M(1)
		3 V(366 367 368) M(1)
		3 V(369 370 371) M(1)
		4 V(364 372 366 368) M(1)
		4 V(373 372 364 363) M(1)
		3 V(367 374 368) M(1)
		4 V(364 368 374 365) M(1)
		4 V(375 373 363 376) M(1)
		3 V(377 369 371) M(1)
		4 V(377 371 376 378) M(1)
		4 V(375 376 371 370) M(1)
		4 V(378 376 363 362) M(1)
		4 V(379 380 381 382) M(1)
		3 V(383 384 385) M(1)
		3 V(386 387 388) M(1)
		4 V(381 389 383 385) M(1)
		4 V(390 389 381 380) M(1)
		3 V(384 391 385) M(1)
		4 V(381 385 391 382) M(1)
		4 V(392 390 380 393) M(1)
		3 V(394 386 388) M(1)
		4 V(394 388 393 395) M(1)
		4 V(392 393 388 387) M(1)
		4 V(395 393 380 379) M(1)
		4 V(396 397 398 399) M(1)
		3 V(400 401 402) M(1)
		3 V(403 404 405) M(1)
		4 V(398 406 400 402) M(1)
		4 V(407 406 398 397) M(1)
		3 V(401 408 402) M(1)
		4 V(398 402 408 399) M(1)
		4 V(409 407 397 410) M(1)
		3 V(411 403 405) M(1)
		4 V(411 405 410 412) M(1)
		4 V(409 410 405 404) M(1)
		4 V(412 410 397 396) M(1)
		4 V(413 414 415 416) M(1)
		3 V(417 418 419) M(1)
		3 V(420 421 422) M(1)
		4 V(415 423 417 419) M(1)
		4 V(424 423 415 414) M(1)
		3 V(418 425 419) M(1)
		4 V(415 419 425 416) M(1)
		4 V(426 424 414 427) M(1)
		3 V(428 420 422) M(1)
		4 V(428 422 427 429) M(1)
		4 V(426 427 422 421) M(1)
		4 V(429 427 414 413) M(1)
		4 V(430 431 432 433) M(1)
		4 V(432 434 435 433) M(1)
		3 V(436 437 438) M(1)
		3 V(439 440 441) M(1)
		4 V(442 443 432 431) M(1)
		3 V(440 444 441) M(1)
		4 V(445 442 431 446) M(1)
		3 V(447 436 438) M(1)
		4 V(447 438 446 448) M(1)
		4 V(445 446 438 437) M(1)
		4 V(448 446 431 430) M(1)
		4 V(441 444 449 450) M(1)
		4 V(450 449 435 434) M(1)
		4 V(439 441 450 451) M(1)
		4 V(451 450 434 452) M(1)
		4 V(432 443 452 434) M(1)
		4 V(453 454 455 456) M(1)
		3 V(457 458 459) M(1)
		3 V(460 461 462) M(1)
		4 V(455 463 457 459) M(1)
		4 V(464 463 455 454) M(1)
		3 V(458 465 459) M(1)
		4 V(455 459 465 456) M(1)
		4 V(466 464 454 467) M(1)
		3 V(468 460 462) M(1)
		4 V(468 462 467 469) M(1)
		4 V(466 467 462 461) M(1)
		4 V(469 467 454 453) M(1)
		4 V(470 471 472 473) M(1)
		3 V(474 475 476) M(1)
		3 V(477 478 479) M(1)
		4 V(472 480 474 476) M(1)
		4 V(481 480 472 471) M(1)
		3 V(475 482 476) M(1)
		4 V(472 476 482 473) M(1)
		4 V(483 481 471 484) M(1)
		3 V(485 477 479) M(1)
		4 V(485 479 484 486) M(1)
		4 V(483 484 479 478) M(1)
		4 V(486 484 471 470) M(1)
		4 V(487 488 489 490) M(1)
		3 V(491 492 493) M(1)
		3 V(494 495 496) M(1)
		4 V(489 497 491 493) M(1)
		4 V(498 497 489 488) M(1)
		3 V(492 499 493) M(1)
		4 V(489 493 499 490) M(1)
		4 V(500 498 488 501) M(1)
		3 V(502 494 496) M(1)
		4 V(502 496 501 503) M(1)
		4 V(500 501 496 495) M(1)
		4 V(503 501 488 487) M(1)
		4 V(504 505 506 507) M(1)
		3 V(508 509 510) M(1)
		3 V(511 512 513) M(1)
		4 V(506 514 508 510) M(1)
		4 V(515 514 506 505) M(1)
		3 V(509 516 510) M(1)
		4 V(506 510 516 507) M(1)
		4 V(517 515 505 518) M(1)
		3 V(519 511 513) M(1)
		4 V(519 513 518 520) M(1)
		4 V(517 518 513 512) M(1)
		4 V(520 518 505 504) M(1)
		4 V(521 522 523 524) M(1)
		4 V(523 525 526 524) M(1)
		3 V(527 528 529) M(1)
		3 V(530 531 532) M(1)
		4 V(533 534 523 522) M(1)
		3 V(531 535 532) M(1)
		4 V(536 533 522 537) M(1)
		3 V(538 527 529) M(1)
		4 V(538 529 537 539) M(1)
		4 V(536 537 529 528) M(1)
		4 V(539 537 522 521) M(1)
		4 V(532 535 540 541) M(1)
		4 V(541 540 526 525) M(1)
		4 V(530 532 541 542) M(1)
		4 V(542 541 525 543) M(1)
		4 V(523 534 543 525) M(1)
		4 V(544 545 546 547) M(1)
		4 V(546 548 549 547) M(1)
		3 V(550 551 552) M(1)
		3 V(553 554 555) M(1)
		4 V(556 557 546 545) M(1)
		3 V(554 558 555) M(1)
		4 V(559 556 545 560) M(1)
		3 V(561 550 552) M(1)
		4 V(561 552 560 562) M(1)
		4 V(559 560 552 551) M(1)
		4 V(562 560 545 544) M(1)
		4 V(555 558 563 564) M(1)
		4 V(564 563 549 548) M(1)
		4 V(553 555 564 565) M(1)
		4 V(565 564 548 566) M(1)
		4 V(546 557 566 548) M(1)
		4 V(567 568 569 570) M(1)
		4 V(569 571 572 570) M(1)
		3 V(573 574 575) M(1)
		3 V(576 577 578) M(1)
		4 V(579 580 569 568) M(1)
		3 V(577 581 578) M(1)
		4 V(582 579 568 583) M(1)
		3 V(584 573 575) M(1)
		4 V(584 575 583 585) M(1)
		4 V(582 583 575 574) M(1)
		4 V(585 583 568 567) M(1)
		4 V(578 581 586 587) M(1)
		4 V(587 586 572 571) M(1)
		4 V(576 578 587 588) M(1)
		4 V(588 587 571 589) M(1)
		4 V(569 580 589 571) M(1)
		4 V(590 591 592 593) M(1)
		4 V(592 594 595 593) M(1)
		3 V(596 597 598) M(1)
		3 V(599 600 601) M(1)
		4 V(602 603 592 591) M(1)
		3 V(600 604 601) M(1)
		4 V(605 602 591 606) M(1)
		3 V(607 596 598) M(1)
		4 V(607 598 606 608) M(1)
		4 V(605 606 598 597) M(1)
		4 V(608 606 591 590) M(1)
		4 V(601 604 609 610) M(1)
		4 V(610 609 595 594) M(1)
		4 V(599 601 610 611) M(1)
		4 V(611 610 594 612) M(1)
		4 V(592 603 612 594) M(1)
		4 V(613 614 615 616) M(1)
		4 V(615 617 618 616) M(1)
		3 V(619 620 621) M(1)
		3 V(622 623 624) M(1)
		4 V(625 626 615 614) M(1)
		3 V(623 627 624) M(1)
		4 V(628 625 614 629) M(1)
		3 V(630 619 621) M(1)
		4 V(630 621 629 631) M(1)
		4 V(628 629 621 620) M(1)
		4 V(631 629 614 613) M(1)
		4 V(624 627 632 633) M(1)
		4 V(633 632 618 617) M(1)
		4 V(622 624 633 634) M(1)
		4 V(634 633 617 635) M(1)
		4 V(615 626 635 617) M(1)
		4 V(636 637 638 639) M(1)
		4 V(638 640 641 639) M(1)
		3 V(642 643 644) M(1)
		3 V(645 646 647) M(1)
		4 V(648 649 638 637) M(1)
		3 V(646 650 647) M(1)
		4 V(651 648 637 652) M(1)
		3 V(653 642 644) M(1)
		4 V(653 644 652 654) M(1)
		4 V(651 652 644 643) M(1)
		4 V(654 652 637 636) M(1)
		4 V(647 650 655 656) M(1)
		4 V(656 655 641 640) M(1)
		4 V(645 647 656 657) M(1)
		4 V(657 656 640 658) M(1)
		4 V(638 649 658 640) M(1)
		4 V(659 660 661 662) M(1)
		4 V(661 663 664 662) M(1)
		3 V(665 666 667) M(1)
		3 V(668 669 670) M(1)
		4 V(671 672 661 660) M(1)
		3 V(669 673 670) M(1)
		4 V(674 671 660 675) M(1)
		3 V(676 665 667) M(1)
		4 V(676 667 675 677) M(1)
		4 V(674 675 667 666) M(1)
		4 V(677 675 660 659) M(1)
		4 V(670 673 678 679) M(1)
		4 V(679 678 664 663) M(1)
		4 V(668 670 679 680) M(1)
		4 V(680 679 663 681) M(1)
		4 V(661 672 681 663) M(1)
		4 V(682 683 684 685) M(1)
		4 V(684 686 687 685) M(1)
		3 V(688 689 690) M(1)
		3 V(691 692 693) M(1)
		4 V(694 695 684 683) M(1)
		3 V(692 696 693) M(1)
		4 V(697 694 683 698) M(1)
		3 V(699 688 690) M(1)
		4 V(699 690 698 700) M(1)
		4 V(697 698 690 689) M(1)
		4 V(700 698 683 682) M(1)
		4 V(693 696 701 702) M(1)
		4 V(702 701 687 686) M(1)
		4 V(691 693 702 703) M(1)
		4 V(703 702 686 704) M(1)
		4 V(684 695 704 686) M(1)
		4 V(705 706 707 708) M(1)
		4 V(707 709 710 708) M(1)
		3 V(711 712 713) M(1)
		3 V(714 715 716) M(1)
		4 V(717 718 707 706) M(1)
		3 V(715 719 716) M(1)
		4 V(720 717 706 721) M(1)
		3 V(722 711 713) M(1)
		4 V(722 713 721 723) M(1)
		4 V(720 721 713 712) M(1)
		4 V(723 721 706 705) M(1)
		4 V(716 719 724 725) M(1)
		4 V(725 724 710 709) M(1)
		4 V(714 716 725 726) M(1)
		4 V(726 725 709 727) M(1)
		4 V(707 718 727 709) M(1)
		4 V(728 729 730 731) M(1)
		4 V(730 732 733 731) M(1)
		3 V(734 735 736) M(1)
		3 V(737 738 739) M(1)
		4 V(740 741 730 729) M(1)
		3 V(738 742 739) M(1)
		4 V(743 740 729 744) M(1)
		3 V(745 734 736) M(1)
		4 V(745 736 744 746) M(1)
		4 V(743 744 736 735) M(1)
		4 V(746 744 729 728) M(1)
		4 V(739 742 747 748) M(1)
		4 V(748 747 733 732) M(1)
		4 V(737 739 748 749) M(1)
		4 V(749 748 732 750) M(1)
		4 V(730 741 750 732) M(1)
		4 V(751 752 753 754) M(1)
		3 V(755 756 757) M(1)
		4 V(753 757 756 754) M(1)
		4 V(758 759 760 761) M(1)
		4 V(761 760 752 751) M(1)
		4 V(762 763 764 765) M(1)
		3 V(766 767 768) M(1)
		4 V(764 768 767 765) M(1)
		4 V(769 770 771 772) M(1)
		4 V(772 771 763 762) M(1)
		4 V(773 774 764 763) M(1)
		3 V(766 768 775) M(1)
		4 V(764 774 775 768) M(1)
		4 V(776 777 771 770) M(1)
		4 V(777 773 763 771) M(1)
		4 V(778 779 780 781) M(1)
		3 V(782 783 784) M(1)
		4 V(780 784 783 781) M(1)
		4 V(785 786 787 788) M(1)
		4 V(788 787 779 778) M(1)
		4 V(789 790 780 779) M(1)
		3 V(782 784 791) M(1)
		4 V(780 790 791 784) M(1)
		4 V(792 793 787 786) M(1)
		4 V(793 789 779 787) M(1)
		4 V(794 795 796 797) M(1)
		3 V(798 799 800) M(1)
		4 V(796 800 799 797) M(1)
		4 V(801 802 803 804) M(1)
		4 V(804 803 795 794) M(1)
		4 V(805 806 796 795) M(1)
		3 V(798 800 807) M(1)
		4 V(796 806 807 800) M(1)
		4 V(808 809 803 802) M(1)
		4 V(809 805 795 803) M(1)
		4 V(810 811 753 752) M(1)
		3 V(755 757 812) M(1)
		4 V(753 811 812 757) M(1)
		4 V(813 814 760 759) M(1)
		4 V(814 810 752 760) M(1)
		4 V(815 816 817 818) M(1)
		3 V(819 820 821) M(1)
		4 V(817 816 821 820) M(1)
		4 V(822 823 824 825) M(1)
		4 V(823 815 818 824) M(1)
		4 V(826 818 817 827) M(1)
		3 V(819 828 820) M(1)
		4 V(817 820 828 827) M(1)
		4 V(829 825 824 830) M(1)
		4 V(830 824 818 826) M(1)
		4 V(831 832 833 834) M(1)
		3 V(835 836 837) M(1)
		4 V(833 832 837 836) M(1)
		4 V(838 839 840 841) M(1)
		4 V(839 831 834 840) M(1)
		4 V(842 834 833 843) M(1)
		3 V(835 844 836) M(1)
		4 V(833 836 844 843) M(1)
		4 V(845 841 840 846) M(1)
		4 V(846 840 834 842) M(1)
		4 V(847 848 849 850) M(1)
		3 V(851 852 853) M(1)
		4 V(849 848 853 852) M(1)
		4 V(854 855 856 857) M(1)
		4 V(855 847 850 856) M(1)
		4 V(858 850 849 859) M(1)
		3 V(851 860 852) M(1)
		4 V(849 852 860 859) M(1)
		4 V(861 857 856 862) M(1)
		4 V(862 856 850 858) M(1)
		4 V(863 864 865 866) M(1)
		4 V(867 868 869 870) M(1)
		4 V(871 872 873 874) M(1)
		4 V(875 876 877 864) M(1)
		4 V(878 879 880 881) M(1)
		4 V(882 883 884 885) M(1)
		4 V(874 873 886 887) M(1)
		4 V(868 882 885 869) M(1)
		4 V(878 881 888 863) M(1)
		4 V(889 878 863 866) M(1)
		4 V(890 891 882 868) M(1)
		4 V(892 893 874 887) M(1)
		4 V(877 894 865 864) M(1)
		4 V(891 895 883 882) M(1)
		4 V(889 896 879 878) M(1)
		4 V(883 897 898 884) M(1)
		4 V(894 877 873 872) M(1)
		4 V(899 890 868 867) M(1)
		4 V(888 875 864 863) M(1)
		4 V(900 901 902 903) M(1)
		4 V(904 905 906 907) M(1)
		4 V(908 909 910 911) M(1)
		4 V(912 900 903 913) M(1)
		4 V(914 915 916 917) M(1)
		4 V(918 904 907 919) M(1)
		4 V(920 921 915 914) M(1)
		4 V(906 905 921 920) M(1)
		4 V(909 912 913 910) M(1)
		4 V(922 918 919 923) M(1)
		4 V(873 877 876 886) M(1)
		4 V(874 893 924 871) M(1)
		4 V(895 925 897 883) M(1)
		3 V(926 927 928)
		4 V(929 928 930 931)
		3 V(926 932 927)
		4 V(928 927 933 930)
		4 V(927 932 934 933)
		3 V(926 935 932)
		3 V(926 936 935)
		4 V(932 935 937 934)
		3 V(926 938 936)
		4 V(935 936 939 937)
		4 V(936 938 940 939)
		3 V(926 941 938)
		3 V(942 941 926)
		4 V(938 941 943 940)
		3 V(926 944 945)
		4 V(941 942 946 943)
		3 V(926 945 942)
		4 V(942 945 947 946)
		3 V(948 944 926)
		4 V(945 944 949 947)
		3 V(926 950 948)
		4 V(944 948 951 949)
		3 V(926 952 950)
		4 V(948 950 953 951)
		3 V(954 952 926)
		4 V(950 952 955 953)
		4 V(952 954 956 955)
		3 V(954 926 929)
		3 V(926 928 929)
		4 V(957 899 867 958) M(1)
		4 V(958 867 870 959) M(1)
		4 V(954 929 931 956)
		3 V(960 961 962) M(3)
		4 V(963 962 964 965) M(3)
		3 V(960 966 961) M(3)
		4 V(962 961 967 964) M(3)
		4 V(961 966 968 967) M(3)
		3 V(960 969 966) M(3)
		3 V(960 970 969) M(3)
		4 V(966 969 971 968) M(3)
		3 V(960 972 970) M(3)
		4 V(969 970 973 971) M(3)
		4 V(970 972 974 973) M(3)
		3 V(960 975 972) M(3)
		3 V(976 975 960) M(3)
		4 V(972 975 977 974) M(3)
		3 V(960 978 979) M(3)
		4 V(975 976 980 977) M(3)
		3 V(960 979 976) M(3)
		4 V(976 979 981 980) M(3)
		3 V(982 978 960) M(3)
		4 V(979 978 983 981) M(3)
		3 V(960 984 982) M(3)
		4 V(978 982 985 983) M(3)
		3 V(960 986 984) M(3)
		4 V(982 984 987 985) M(3)
		3 V(988 986 960) M(3)
		4 V(984 986 989 987) M(3)
		4 V(986 988 990 989) M(3)
		3 V(988 960 963) M(3)
		3 V(960 962 963) M(3)
		4 V(988 963 965 990) M(3)
	}
}
Eof
